  /* Atlas3 solar spectrum at 0.05nm interval starting from 280nm */
  double solirr[2601] = {
    8.796150e+01, 8.181960e+01, 7.269800e+01, 7.248340e+01, 7.832420e+01,
    8.634760e+01, 8.479950e+01, 7.684390e+01, 7.335390e+01, 8.016170e+01,
    9.492000e+01, 1.070280e+02, 1.124840e+02, 1.192020e+02, 1.290240e+02,
    1.415020e+02, 1.515970e+02, 1.604990e+02, 1.716480e+02, 1.800150e+02,
    1.818410e+02, 1.795610e+02, 1.780250e+02, 1.792050e+02, 1.810310e+02,
    1.805160e+02, 1.893850e+02, 2.227640e+02, 2.441120e+02, 2.622250e+02,
    2.707810e+02, 2.640570e+02, 2.561370e+02, 2.495480e+02, 2.484570e+02,
    2.571660e+02, 2.695770e+02, 2.776480e+02, 2.891130e+02, 3.039620e+02,
    3.100670e+02, 3.094820e+02, 3.027140e+02, 2.966350e+02, 2.919860e+02,
    2.960520e+02, 3.142460e+02, 3.385600e+02, 3.582010e+02, 3.414690e+02,
    3.003320e+02, 2.831610e+02, 2.923120e+02, 3.074260e+02, 3.162820e+02,
    3.177830e+02, 3.222310e+02, 3.297370e+02, 3.436170e+02, 3.631030e+02,
    3.654850e+02, 3.611680e+02, 3.592020e+02, 3.526000e+02, 3.375250e+02,
    3.294740e+02, 3.453680e+02, 3.521810e+02, 3.337970e+02, 3.020300e+02,
    2.635430e+02, 2.401620e+02, 2.825380e+02, 3.380470e+02, 3.640320e+02,
    3.705330e+02, 3.639790e+02, 3.528880e+02, 3.485360e+02, 3.375220e+02,
    3.066650e+02, 2.852060e+02, 2.954520e+02, 3.257820e+02, 3.353370e+02,
    2.955150e+02, 2.430110e+02, 2.188390e+02, 2.479620e+02, 2.960810e+02,
    2.961210e+02, 2.697120e+02, 2.420990e+02, 2.238440e+02, 2.074600e+02,
    1.945190e+02, 1.736440e+02, 1.505540e+02, 1.339580e+02, 1.236450e+02,
    1.104540e+02, 9.516250e+01, 7.897910e+01, 6.483280e+01, 5.362600e+01,
    5.250550e+01, 6.685460e+01, 8.406330e+01, 1.002060e+02, 1.200230e+02,
    1.367880e+02, 1.488180e+02, 1.607580e+02, 1.816660e+02, 2.094190e+02,
    2.233490e+02, 2.241700e+02, 2.390970e+02, 2.832080e+02, 3.197800e+02,
    3.362220e+02, 3.343170e+02, 3.332460e+02, 3.391920e+02, 3.397110e+02,
    3.327540e+02, 3.444180e+02, 3.632730e+02, 3.793430e+02, 3.793470e+02,
    3.662480e+02, 3.704610e+02, 3.808790e+02, 3.701700e+02, 3.351900e+02,
    3.156570e+02, 3.141080e+02, 3.071890e+02, 2.993090e+02, 3.225530e+02,
    3.701350e+02, 4.112820e+02, 4.469040e+02, 4.642800e+02, 4.498690e+02,
    4.332430e+02, 4.035720e+02, 3.684890e+02, 3.603960e+02, 3.766200e+02,
    3.832450e+02, 3.586320e+02, 3.340240e+02, 3.343670e+02, 3.603260e+02,
    3.732140e+02, 3.553830e+02, 3.221070e+02, 2.828260e+02, 2.534710e+02,
    2.282940e+02, 1.855300e+02, 1.497080e+02, 1.297660e+02, 1.521490e+02,
    1.982000e+02, 2.398190e+02, 2.875110e+02, 3.617570e+02, 4.127370e+02,
    4.434730e+02, 4.494110e+02, 4.345790e+02, 4.220260e+02, 4.149960e+02,
    4.082060e+02, 4.117660e+02, 4.219870e+02, 4.191450e+02, 4.080430e+02,
    4.118140e+02, 4.162730e+02, 4.137970e+02, 4.188420e+02, 4.251270e+02,
    4.266570e+02, 4.256620e+02, 4.246040e+02, 4.330040e+02, 4.540000e+02,
    4.889100e+02, 5.275720e+02, 5.499630e+02, 5.487680e+02, 5.461470e+02,
    5.416800e+02, 5.364570e+02, 5.452040e+02, 5.837600e+02, 6.304720e+02,
    6.751380e+02, 6.870810e+02, 6.520530e+02, 5.988540e+02, 5.678460e+02,
    6.072350e+02, 6.638780e+02, 6.891010e+02, 6.943370e+02, 6.882900e+02,
    6.737860e+02, 6.513400e+02, 6.213960e+02, 6.117590e+02, 6.047640e+02,
    5.952430e+02, 5.814360e+02, 5.750680e+02, 5.792490e+02, 5.882160e+02,
    5.882810e+02, 5.809540e+02, 5.868220e+02, 5.970350e+02, 6.160700e+02,
    6.727540e+02, 7.227600e+02, 6.985610e+02, 6.322110e+02, 5.850850e+02,
    5.464620e+02, 5.420850e+02, 5.575160e+02, 5.797850e+02, 5.736450e+02,
    5.422140e+02, 5.214620e+02, 5.461720e+02, 5.808360e+02, 5.942680e+02,
    5.883350e+02, 5.810110e+02, 5.935650e+02, 6.022030e+02, 5.975850e+02,
    5.836850e+02, 5.318130e+02, 4.895710e+02, 4.886670e+02, 5.037560e+02,
    4.954860e+02, 4.586860e+02, 4.410970e+02, 4.476160e+02, 4.838210e+02,
    5.029700e+02, 4.589590e+02, 4.078070e+02, 4.062100e+02, 5.266810e+02,
    6.340160e+02, 6.627720e+02, 6.555160e+02, 6.694890e+02, 6.768390e+02,
    6.571900e+02, 6.182300e+02, 5.977910e+02, 6.300340e+02, 6.713080e+02,
    6.982930e+02, 6.558160e+02, 5.140820e+02, 3.838110e+02, 3.436260e+02,
    3.864580e+02, 4.508720e+02, 4.791540e+02, 4.758600e+02, 5.040430e+02,
    5.470170e+02, 5.403730e+02, 4.957590e+02, 4.691610e+02, 5.464950e+02,
    6.257810e+02, 6.334770e+02, 5.880210e+02, 5.329240e+02, 5.138260e+02,
    5.411170e+02, 6.172010e+02, 6.793650e+02, 6.321190e+02, 5.211990e+02,
    4.013840e+02, 3.224470e+02, 3.270650e+02, 3.706130e+02, 4.220580e+02,
    4.979760e+02, 5.747770e+02, 6.273300e+02, 6.637420e+02, 6.871350e+02,
    6.892330e+02, 6.131160e+02, 4.934300e+02, 4.411660e+02, 5.299350e+02,
    6.204760e+02, 6.498000e+02, 6.290700e+02, 5.445830e+02, 4.949610e+02,
    4.999320e+02, 5.961660e+02, 6.760820e+02, 6.719590e+02, 6.246210e+02,
    5.736050e+02, 5.601410e+02, 5.735440e+02, 6.139740e+02, 6.610980e+02,
    7.153860e+02, 7.301670e+02, 6.985330e+02, 6.442540e+02, 5.156980e+02,
    4.016290e+02, 3.484770e+02, 3.240970e+02, 2.896540e+02, 3.220300e+02,
    4.058190e+02, 4.749370e+02, 5.082780e+02, 4.459600e+02, 3.642060e+02,
    3.204270e+02, 3.624540e+02, 4.799800e+02, 5.534590e+02, 5.422380e+02,
    4.679530e+02, 3.653580e+02, 3.885170e+02, 4.838100e+02, 5.952630e+02,
    6.537780e+02, 6.337870e+02, 6.059270e+02, 6.417330e+02, 7.537840e+02,
    8.247040e+02, 8.171050e+02, 7.321490e+02, 6.278370e+02, 5.760230e+02,
    5.626680e+02, 5.377790e+02, 4.588570e+02, 3.849470e+02, 3.862930e+02,
    4.227790e+02, 3.954170e+02, 3.223180e+02, 2.889910e+02, 2.988390e+02,
    3.106730e+02, 3.340580e+02, 3.865400e+02, 4.273830e+02, 4.314650e+02,
    4.321550e+02, 4.642840e+02, 5.142560e+02, 5.673500e+02, 6.401490e+02,
    7.064080e+02, 7.186870e+02, 6.969250e+02, 6.379710e+02, 5.889600e+02,
    5.744880e+02, 5.786930e+02, 4.987530e+02, 3.851650e+02, 3.217840e+02,
    3.367230e+02, 4.583130e+02, 5.785660e+02, 6.326920e+02, 6.640610e+02,
    6.965390e+02, 6.599410e+02, 5.725340e+02, 4.693560e+02, 3.695100e+02,
    3.057200e+02, 2.855660e+02, 2.863550e+02, 3.127090e+02, 3.179690e+02,
    3.012820e+02, 2.838490e+02, 3.569520e+02, 4.775960e+02, 5.618380e+02,
    5.920030e+02, 6.029320e+02, 5.368660e+02, 4.722690e+02, 4.217460e+02,
    3.802740e+02, 3.577910e+02, 3.698350e+02, 4.082780e+02, 4.467760e+02,
    5.285390e+02, 6.155150e+02, 6.137960e+02, 5.513450e+02, 5.058570e+02,
    5.442690e+02, 5.878620e+02, 5.916110e+02, 5.837680e+02, 5.759000e+02,
    5.763400e+02, 5.718430e+02, 5.676540e+02, 5.288850e+02, 4.845000e+02,
    4.339920e+02, 3.985410e+02, 3.718510e+02, 3.508770e+02, 3.133630e+02,
    2.574250e+02, 1.861540e+02, 2.480200e+02, 2.944200e+02, 4.287280e+02,
    5.639920e+02, 6.255300e+02, 6.299280e+02, 5.865920e+02, 5.360810e+02,
    4.810290e+02, 4.160650e+02, 4.256150e+02, 5.251020e+02, 6.815770e+02,
    7.843890e+02, 8.302220e+02, 7.841170e+02, 7.086610e+02, 6.546610e+02,
    6.326770e+02, 6.171400e+02, 5.914550e+02, 6.371220e+02, 6.923710e+02,
    7.622530e+02, 8.067240e+02, 7.819830e+02, 7.523570e+02, 7.600330e+02,
    7.836540e+02, 7.960680e+02, 7.881620e+02, 6.616200e+02, 4.816490e+02,
    4.220920e+02, 4.229490e+02, 5.134520e+02, 6.339810e+02, 6.574390e+02,
    6.336320e+02, 6.187340e+02, 5.585470e+02, 5.013400e+02, 5.342100e+02,
    5.326720e+02, 6.070800e+02, 7.079730e+02, 7.474350e+02, 7.445810e+02,
    7.538430e+02, 7.481950e+02, 7.610410e+02, 6.682420e+02, 5.410420e+02,
    4.557860e+02, 4.497880e+02, 5.320800e+02, 6.530100e+02, 7.225110e+02,
    6.939560e+02, 6.511170e+02, 6.797880e+02, 8.175070e+02, 8.452520e+02,
    8.515100e+02, 8.399670e+02, 6.795200e+02, 5.720260e+02, 5.987010e+02,
    6.287130e+02, 6.536690e+02, 6.731940e+02, 5.997320e+02, 4.575860e+02,
    3.690480e+02, 3.389990e+02, 3.409990e+02, 3.675200e+02, 4.076220e+02,
    5.409220e+02, 6.501610e+02, 6.974060e+02, 7.363220e+02, 7.469820e+02,
    7.251100e+02, 7.104920e+02, 6.342780e+02, 5.527860e+02, 5.566740e+02,
    5.959430e+02, 6.221230e+02, 5.456690e+02, 4.744130e+02, 4.300160e+02,
    4.387940e+02, 5.110320e+02, 6.030180e+02, 6.820540e+02, 7.319240e+02,
    7.469560e+02, 7.318550e+02, 7.328740e+02, 6.759580e+02, 6.390710e+02,
    6.575890e+02, 6.824730e+02, 6.978620e+02, 7.160130e+02, 6.511760e+02,
    5.822990e+02, 5.343660e+02, 5.802230e+02, 6.878190e+02, 7.337740e+02,
    7.110040e+02, 6.537230e+02, 6.429700e+02, 7.121930e+02, 7.662350e+02,
    7.569150e+02, 7.256570e+02, 6.374520e+02, 5.600230e+02, 5.321550e+02,
    5.338820e+02, 5.752780e+02, 5.777560e+02, 6.660130e+02, 7.855210e+02,
    8.392830e+02, 8.259120e+02, 8.144690e+02, 7.446610e+02, 6.461950e+02,
    5.942910e+02, 5.805050e+02, 6.072200e+02, 6.474490e+02, 6.406220e+02,
    6.112320e+02, 5.744140e+02, 5.176680e+02, 4.754010e+02, 4.618060e+02,
    4.179310e+02, 3.884530e+02, 3.823760e+02, 4.565660e+02, 5.915210e+02,
    6.699580e+02, 6.229550e+02, 5.740500e+02, 5.014950e+02, 4.349250e+02,
    4.817500e+02, 5.626500e+02, 6.073190e+02, 5.723910e+02, 4.564380e+02,
    3.465900e+02, 2.968480e+02, 3.045150e+02, 3.337450e+02, 4.083490e+02,
    4.978740e+02, 6.163620e+02, 7.335830e+02, 7.829350e+02, 7.783600e+02,
    7.600760e+02, 7.362290e+02, 7.532920e+02, 7.701370e+02, 8.039760e+02,
    8.437040e+02, 8.918170e+02, 9.111620e+02, 9.104010e+02, 8.506540e+02,
    7.858260e+02, 7.386870e+02, 7.468350e+02, 7.913840e+02, 8.379360e+02,
    8.710490e+02, 8.911420e+02, 8.462450e+02, 7.706800e+02, 7.460140e+02,
    7.842220e+02, 8.207550e+02, 8.074020e+02, 7.166890e+02, 6.558750e+02,
    6.510510e+02, 6.443860e+02, 6.398780e+02, 6.337060e+02, 6.169550e+02,
    6.053360e+02, 6.053520e+02, 6.092330e+02, 6.019570e+02, 6.066450e+02,
    6.665400e+02, 7.146130e+02, 7.707970e+02, 8.053080e+02, 7.693670e+02,
    6.960270e+02, 6.333560e+02, 6.248330e+02, 6.728040e+02, 7.198330e+02,
    7.461280e+02, 7.413350e+02, 7.297210e+02, 7.295790e+02, 7.489690e+02,
    7.466880e+02, 7.189040e+02, 7.021990e+02, 7.049000e+02, 7.039330e+02,
    7.021730e+02, 6.973490e+02, 6.822480e+02, 6.475730e+02, 6.597610e+02,
    7.097310e+02, 7.461360e+02, 7.374970e+02, 7.377110e+02, 7.670950e+02,
    8.029880e+02, 8.594000e+02, 9.003060e+02, 8.862380e+02, 8.523540e+02,
    8.229440e+02, 8.220670e+02, 8.601180e+02, 8.671310e+02, 8.768070e+02,
    7.406860e+02, 5.778150e+02, 4.714250e+02, 3.987260e+02, 3.607710e+02,
    4.704510e+02, 5.760850e+02, 6.212800e+02, 6.535670e+02, 6.498570e+02,
    6.608050e+02, 6.702440e+02, 7.639480e+02, 8.314380e+02, 8.202300e+02,
    7.969100e+02, 7.601510e+02, 7.625460e+02, 7.643270e+02, 7.585180e+02,
    7.702190e+02, 7.805720e+02, 7.884380e+02, 7.634890e+02, 7.310690e+02,
    7.233430e+02, 7.299180e+02, 6.987370e+02, 6.812430e+02, 5.701770e+02,
    4.705220e+02, 4.404670e+02, 4.307160e+02, 4.333620e+02, 4.618710e+02,
    4.856080e+02, 4.910550e+02, 4.863880e+02, 5.040200e+02, 5.484970e+02,
    6.162110e+02, 6.744200e+02, 7.080580e+02, 7.021070e+02, 6.783310e+02,
    5.650720e+02, 6.261240e+02, 6.917480e+02, 6.957190e+02, 7.276300e+02,
    7.660140e+02, 7.366240e+02, 6.918080e+02, 6.868100e+02, 7.342920e+02,
    8.228340e+02, 8.871080e+02, 9.335950e+02, 9.624670e+02, 9.528330e+02,
    9.536610e+02, 9.458400e+02, 9.217800e+02, 8.783310e+02, 8.480320e+02,
    8.347140e+02, 8.606620e+02, 9.232410e+02, 9.396380e+02, 9.486360e+02,
    8.990620e+02, 7.742530e+02, 6.779820e+02, 6.077010e+02, 5.428780e+02,
    5.245840e+02, 5.451720e+02, 5.501900e+02, 5.396750e+02, 5.467640e+02,
    5.814860e+02, 5.997550e+02, 6.182060e+02, 6.433080e+02, 6.600270e+02,
    6.816210e+02, 7.049270e+02, 7.395100e+02, 7.432570e+02, 7.308750e+02,
    7.429010e+02, 7.659030e+02, 8.250550e+02, 9.258720e+02, 9.770860e+02,
    9.109020e+02, 8.036150e+02, 7.132460e+02, 6.627390e+02, 5.776550e+02,
    4.938990e+02, 5.174870e+02, 5.597430e+02, 6.286670e+02, 6.951980e+02,
    7.165980e+02, 7.203110e+02, 7.220630e+02, 7.018190e+02, 6.881740e+02,
    7.587360e+02, 8.092150e+02, 8.757640e+02, 9.433540e+02, 9.149930e+02,
    7.938230e+02, 7.544390e+02, 8.101730e+02, 8.787400e+02, 8.850460e+02,
    8.540330e+02, 8.649670e+02, 8.874150e+02, 9.446700e+02, 9.829500e+02,
    9.469070e+02, 9.109890e+02, 9.246540e+02, 9.492850e+02, 9.619730e+02,
    9.352830e+02, 8.697970e+02, 7.905770e+02, 7.527590e+02, 7.108650e+02,
    7.070930e+02, 6.677570e+02, 6.176710e+02, 5.999810e+02, 5.939000e+02,
    5.976830e+02, 6.128600e+02, 5.808550e+02, 5.589120e+02, 5.918480e+02,
    6.627990e+02, 7.329050e+02, 7.596710e+02, 7.436910e+02, 7.053260e+02,
    7.275500e+02, 8.117860e+02, 8.986620e+02, 9.083230e+02, 8.818070e+02,
    8.603270e+02, 8.957130e+02, 8.854870e+02, 7.998450e+02, 7.075680e+02,
    6.646130e+02, 6.728430e+02, 7.742030e+02, 8.386800e+02, 8.401810e+02,
    7.810940e+02, 6.772580e+02, 6.235650e+02, 6.293130e+02, 6.481770e+02,
    6.268740e+02, 5.869780e+02, 5.618590e+02, 5.488690e+02, 5.414960e+02,
    5.874860e+02, 6.107290e+02, 6.732800e+02, 7.614190e+02, 7.958310e+02,
    8.031040e+02, 7.751130e+02, 7.138440e+02, 6.230310e+02, 5.977940e+02,
    6.200220e+02, 6.766270e+02, 6.696570e+02, 6.292250e+02, 6.392520e+02,
    7.224950e+02, 7.808120e+02, 8.084640e+02, 7.470900e+02, 6.955270e+02,
    7.946920e+02, 8.768500e+02, 9.037570e+02, 8.642170e+02, 8.262970e+02,
    8.131660e+02, 7.938180e+02, 7.910340e+02, 7.780470e+02, 8.157900e+02,
    8.590010e+02, 8.889790e+02, 9.229110e+02, 8.881930e+02, 8.569750e+02,
    7.767070e+02, 7.136840e+02, 7.118900e+02, 7.346880e+02, 7.613920e+02,
    7.726610e+02, 7.673560e+02, 7.692090e+02, 7.962910e+02, 8.259180e+02,
    8.405160e+02, 8.375690e+02, 8.324300e+02, 8.051530e+02, 8.955610e+02,
    9.798510e+02, 1.058500e+03, 1.064470e+03, 1.039080e+03, 1.004970e+03,
    9.900010e+02, 9.917460e+02, 1.052530e+03, 1.100420e+03, 1.110270e+03,
    1.109020e+03, 1.067950e+03, 1.053120e+03, 1.020620e+03, 1.007290e+03,
    1.040950e+03, 1.067640e+03, 1.037950e+03, 9.556880e+02, 8.873100e+02,
    8.699460e+02, 9.071340e+02, 9.631900e+02, 1.053890e+03, 1.092100e+03,
    1.078500e+03, 1.077890e+03, 1.075510e+03, 1.068470e+03, 1.048290e+03,
    1.025320e+03, 9.879370e+02, 9.097960e+02, 8.816300e+02, 9.337010e+02,
    9.801950e+02, 1.039050e+03, 1.026140e+03, 1.013460e+03, 1.026110e+03,
    1.064070e+03, 1.062620e+03, 1.029090e+03, 9.611410e+02, 9.453200e+02,
    9.535930e+02, 9.852990e+02, 9.830650e+02, 9.506660e+02, 9.241690e+02,
    9.238070e+02, 9.543530e+02, 9.946980e+02, 9.820460e+02, 9.623270e+02,
    9.187610e+02, 9.345570e+02, 9.733880e+02, 1.000180e+03, 1.021850e+03,
    9.622020e+02, 9.220730e+02, 8.615150e+02, 8.129800e+02, 7.525950e+02,
    7.747110e+02, 8.365970e+02, 8.988900e+02, 9.793270e+02, 1.073800e+03,
    1.143130e+03, 1.146800e+03, 1.117050e+03, 1.088880e+03, 1.068950e+03,
    1.079230e+03, 1.102210e+03, 1.163920e+03, 1.192530e+03, 1.194430e+03,
    1.149430e+03, 1.111860e+03, 1.121920e+03, 1.138300e+03, 1.158340e+03,
    1.157640e+03, 1.135500e+03, 1.108740e+03, 1.107030e+03, 1.163840e+03,
    1.267530e+03, 1.333190e+03, 1.302480e+03, 1.217680e+03, 1.101720e+03,
    9.948460e+02, 9.656910e+02, 1.014870e+03, 1.076800e+03, 1.029780e+03,
    1.009610e+03, 9.305530e+02, 8.246790e+02, 7.785530e+02, 8.238820e+02,
    8.975050e+02, 9.920230e+02, 1.048700e+03, 1.068510e+03, 1.081530e+03,
    1.068230e+03, 1.051670e+03, 1.059600e+03, 1.064580e+03, 1.046780e+03,
    1.003910e+03, 9.894230e+02, 9.661080e+02, 9.388200e+02, 8.915670e+02,
    8.749690e+02, 9.011310e+02, 9.742030e+02, 1.041200e+03, 1.063050e+03,
    1.069780e+03, 1.087120e+03, 1.089560e+03, 1.092170e+03, 1.075600e+03,
    1.041790e+03, 1.028250e+03, 1.008160e+03, 1.030460e+03, 9.575480e+02,
    8.626550e+02, 8.059100e+02, 7.893370e+02, 8.639220e+02, 9.421960e+02,
    1.040850e+03, 1.090910e+03, 1.124950e+03, 1.078120e+03, 1.015810e+03,
    9.827470e+02, 9.928520e+02, 9.666090e+02, 9.202940e+02, 8.755690e+02,
    8.646910e+02, 9.563470e+02, 1.035640e+03, 1.076440e+03, 1.043040e+03,
    1.024040e+03, 1.047140e+03, 1.083530e+03, 1.042060e+03, 9.579780e+02,
    9.022530e+02, 8.275440e+02, 7.759910e+02, 7.440280e+02, 7.816640e+02,
    8.216760e+02, 9.002090e+02, 9.722800e+02, 1.002750e+03, 9.663550e+02,
    9.711480e+02, 9.739480e+02, 9.931020e+02, 9.729720e+02, 9.554580e+02,
    9.122020e+02, 9.839310e+02, 1.053830e+03, 1.093500e+03, 1.099700e+03,
    1.094850e+03, 1.098470e+03, 1.113010e+03, 1.098790e+03, 1.081390e+03,
    1.063280e+03, 1.052370e+03, 9.385020e+02, 7.922200e+02, 7.012480e+02,
    7.388910e+02, 8.332710e+02, 1.012730e+03, 1.092150e+03, 1.108300e+03,
    1.106410e+03, 1.095150e+03, 1.051080e+03, 1.021960e+03, 1.033010e+03,
    1.087650e+03, 1.157670e+03, 1.159110e+03, 1.149790e+03, 1.128970e+03,
    1.092870e+03, 1.039370e+03, 9.007650e+02, 7.402800e+02, 6.067950e+02,
    5.272530e+02, 4.934890e+02, 4.698350e+02, 4.939970e+02, 6.187320e+02,
    6.814410e+02, 8.412300e+02, 9.576110e+02, 1.011310e+03, 1.035060e+03,
    1.087950e+03, 1.080490e+03, 1.018360e+03, 9.525700e+02, 9.108840e+02,
    8.336550e+02, 7.830390e+02, 7.698810e+02, 7.234560e+02, 6.801530e+02,
    6.945900e+02, 7.317280e+02, 7.554890e+02, 7.361000e+02, 7.029760e+02,
    6.908340e+02, 7.059270e+02, 7.850280e+02, 8.677400e+02, 8.884210e+02,
    9.647110e+02, 1.065620e+03, 1.136220e+03, 1.154080e+03, 1.147200e+03,
    1.139620e+03, 1.072900e+03, 9.574520e+02, 8.917860e+02, 8.118150e+02,
    6.864840e+02, 6.438860e+02, 6.636310e+02, 8.337560e+02, 9.804600e+02,
    1.010770e+03, 9.892330e+02, 9.321640e+02, 9.244980e+02, 9.538140e+02,
    1.016310e+03, 1.047880e+03, 1.083350e+03, 1.140510e+03, 1.122930e+03,
    1.087700e+03, 9.397690e+02, 8.935870e+02, 1.001270e+03, 1.095280e+03,
    1.157760e+03, 1.117940e+03, 1.012130e+03, 9.633030e+02, 8.487790e+02,
    7.714170e+02, 7.216620e+02, 7.233470e+02, 7.978610e+02, 8.956360e+02,
    9.511050e+02, 9.911580e+02, 1.015530e+03, 1.041400e+03, 1.077700e+03,
    1.104820e+03, 1.118230e+03, 1.133200e+03, 1.142660e+03, 1.127610e+03,
    1.195790e+03, 1.273460e+03, 1.264860e+03, 1.120320e+03, 1.082280e+03,
    1.065720e+03, 1.068950e+03, 1.079770e+03, 1.042810e+03, 1.012640e+03,
    1.006960e+03, 1.005750e+03, 1.036670e+03, 1.033550e+03, 9.411200e+02,
    8.904640e+02, 9.113610e+02, 9.449930e+02, 9.507020e+02, 9.375720e+02,
    9.447010e+02, 9.929870e+02, 1.067840e+03, 1.112850e+03, 1.066650e+03,
    1.063450e+03, 8.881880e+02, 8.342320e+02, 7.742500e+02, 7.097120e+02,
    7.176920e+02, 8.051800e+02, 8.613220e+02, 9.734000e+02, 1.007370e+03,
    9.835360e+02, 9.798130e+02, 1.009260e+03, 1.097890e+03, 1.168200e+03,
    1.199700e+03, 1.196730e+03, 1.148930e+03, 1.109110e+03, 1.100500e+03,
    1.018640e+03, 9.234710e+02, 8.737610e+02, 8.609250e+02, 8.947660e+02,
    1.012530e+03, 1.081760e+03, 1.089820e+03, 1.054590e+03, 9.431920e+02,
    9.241100e+02, 9.806170e+02, 9.986900e+02, 1.089110e+03, 1.198040e+03,
    1.262480e+03, 1.251120e+03, 1.223200e+03, 1.134220e+03, 1.060100e+03,
    9.909060e+02, 9.385970e+02, 8.436040e+02, 8.716370e+02, 9.771700e+02,
    1.128210e+03, 1.183570e+03, 1.147040e+03, 1.084700e+03, 1.013470e+03,
    9.405090e+02, 9.273640e+02, 9.523520e+02, 9.755170e+02, 8.746980e+02,
    8.007170e+02, 6.567270e+02, 5.045570e+02, 5.113330e+02, 5.686950e+02,
    6.398870e+02, 6.683370e+02, 6.483200e+02, 6.601280e+02, 7.236490e+02,
    7.684740e+02, 8.309510e+02, 8.130150e+02, 7.850890e+02, 8.035620e+02,
    8.871270e+02, 9.591760e+02, 9.811910e+02, 9.933450e+02, 1.004900e+03,
    1.069710e+03, 1.148380e+03, 1.199050e+03, 1.123820e+03, 1.030470e+03,
    9.097520e+02, 8.473160e+02, 8.573810e+02, 9.924520e+02, 1.135160e+03,
    1.190570e+03, 1.159720e+03, 1.073010e+03, 1.039650e+03, 1.015790e+03,
    1.006960e+03, 9.283410e+02, 8.505540e+02, 8.317470e+02, 8.417880e+02,
    8.227790e+02, 7.937670e+02, 7.746810e+02, 7.511580e+02, 7.752360e+02,
    8.554410e+02, 9.813170e+02, 1.032530e+03, 1.100420e+03, 1.136690e+03,
    1.090860e+03, 1.025820e+03, 8.659220e+02, 8.497340e+02, 9.129850e+02,
    1.025060e+03, 1.099000e+03, 1.121670e+03, 1.060930e+03, 1.038320e+03,
    1.107950e+03, 1.180250e+03, 1.200820e+03, 1.174640e+03, 1.011580e+03,
    9.305010e+02, 9.290000e+02, 9.297110e+02, 8.973780e+02, 8.369780e+02,
    7.503060e+02, 6.982150e+02, 6.702970e+02, 6.779820e+02, 7.332220e+02,
    8.401670e+02, 9.322880e+02, 1.017680e+03, 1.059510e+03, 1.053180e+03,
    1.046990e+03, 1.032540e+03, 1.023760e+03, 1.034730e+03, 1.015920e+03,
    9.634860e+02, 8.861780e+02, 8.544760e+02, 8.612050e+02, 8.926260e+02,
    8.958230e+02, 8.999940e+02, 9.335330e+02, 1.062490e+03, 1.172320e+03,
    1.211000e+03, 1.128910e+03, 1.031600e+03, 8.660200e+02, 8.062520e+02,
    7.663880e+02, 7.219920e+02, 7.843920e+02, 9.064050e+02, 9.151040e+02,
    8.383840e+02, 7.873160e+02, 8.957950e+02, 9.976110e+02, 1.042110e+03,
    9.620250e+02, 8.887470e+02, 8.361510e+02, 7.734460e+02, 7.223670e+02,
    7.417950e+02, 8.317440e+02, 9.608400e+02, 1.150420e+03, 1.211450e+03,
    1.199040e+03, 1.172770e+03, 1.150360e+03, 1.147250e+03, 1.135180e+03,
    1.159370e+03, 1.253370e+03, 1.313020e+03, 1.302600e+03, 1.157220e+03,
    1.078220e+03, 1.036400e+03, 1.026780e+03, 1.025620e+03, 1.068980e+03,
    1.133560e+03, 1.180970e+03, 1.184850e+03, 1.144830e+03, 1.040040e+03,
    9.017930e+02, 9.058040e+02, 9.723880e+02, 1.019920e+03, 1.011490e+03,
    9.853680e+02, 9.028040e+02, 8.374220e+02, 8.015250e+02, 7.802900e+02,
    8.111000e+02, 9.451130e+02, 1.059560e+03, 1.131600e+03, 1.187630e+03,
    1.260490e+03, 1.259110e+03, 1.229860e+03, 1.192940e+03, 1.120180e+03,
    1.051760e+03, 9.868910e+02, 9.367340e+02, 9.212130e+02, 9.630390e+02,
    9.716830e+02, 9.431240e+02, 8.288590e+02, 7.445160e+02, 7.219440e+02,
    7.209430e+02, 7.066850e+02, 6.607740e+02, 6.726680e+02, 7.962660e+02,
    9.591200e+02, 1.069640e+03, 1.152190e+03, 1.152460e+03, 1.119050e+03,
    1.094750e+03, 1.122810e+03, 1.118680e+03, 1.084580e+03, 9.647570e+02,
    8.897690e+02, 9.268530e+02, 1.015240e+03, 1.152630e+03, 1.213350e+03,
    1.192510e+03, 1.156130e+03, 1.111650e+03, 1.084530e+03, 1.067050e+03,
    1.055660e+03, 1.083290e+03, 1.203710e+03, 1.291350e+03, 1.316650e+03,
    1.229890e+03, 1.100190e+03, 1.018860e+03, 1.004520e+03, 1.034690e+03,
    1.087540e+03, 1.142830e+03, 1.196740e+03, 1.222940e+03, 1.220560e+03,
    1.186340e+03, 1.166010e+03, 1.182850e+03, 1.198150e+03, 1.152390e+03,
    1.130610e+03, 1.085670e+03, 1.127920e+03, 1.223750e+03, 1.241520e+03,
    1.236180e+03, 1.203290e+03, 1.168330e+03, 1.152030e+03, 1.129790e+03,
    1.081300e+03, 1.023810e+03, 9.820250e+02, 9.328080e+02, 9.052390e+02,
    9.689430e+02, 1.113100e+03, 1.138210e+03, 1.118520e+03, 1.104860e+03,
    1.086030e+03, 1.026620e+03, 9.734090e+02, 1.001590e+03, 1.032090e+03,
    1.055600e+03, 1.067210e+03, 1.062960e+03, 1.095300e+03, 1.157970e+03,
    1.233860e+03, 1.283210e+03, 1.281020e+03, 1.189500e+03, 9.888730e+02,
    7.357410e+02, 5.725540e+02, 5.826110e+02, 6.872720e+02, 8.456760e+02,
    9.820440e+02, 9.987430e+02, 9.166170e+02, 7.364500e+02, 5.717020e+02,
    5.331090e+02, 6.035050e+02, 7.187220e+02, 7.999150e+02, 8.430120e+02,
    8.868560e+02, 9.418600e+02, 9.392740e+02, 9.390770e+02, 9.301930e+02,
    9.471940e+02, 9.735360e+02, 1.003320e+03, 1.040040e+03, 1.062070e+03,
    1.010690e+03, 8.945580e+02, 8.336090e+02, 8.144890e+02, 8.146480e+02,
    7.795450e+02, 6.477770e+02, 4.721080e+02, 4.435320e+02, 4.934710e+02,
    5.919400e+02, 7.277010e+02, 7.965530e+02, 7.987340e+02, 7.336160e+02,
    5.981700e+02, 5.076830e+02, 5.326050e+02, 5.572560e+02, 5.883080e+02,
    6.528680e+02, 7.239280e+02, 7.797540e+02, 7.836970e+02, 7.884660e+02,
    8.295810e+02, 9.089030e+02, 1.064300e+03, 1.174690e+03, 1.173100e+03,
    1.074160e+03, 1.000390e+03, 9.533320e+02, 9.940380e+02, 1.040450e+03,
    1.088550e+03, 1.163010e+03, 1.216130e+03, 1.257110e+03, 1.259520e+03,
    1.209380e+03, 1.182290e+03, 1.154730e+03, 1.163560e+03, 1.199900e+03,
    1.294810e+03, 1.340290e+03, 1.348730e+03, 1.214260e+03, 1.057830e+03,
    9.796940e+02, 9.406610e+02, 9.423170e+02, 9.483630e+02, 9.454670e+02,
    9.068610e+02, 8.691910e+02, 9.114060e+02, 9.798280e+02, 1.032250e+03,
    1.025730e+03, 9.136300e+02, 7.373840e+02, 6.387630e+02, 6.515670e+02,
    7.263430e+02, 7.958440e+02, 9.035780e+02, 1.017570e+03, 1.070070e+03,
    1.030640e+03, 9.818030e+02, 9.104640e+02, 9.236940e+02, 1.003310e+03,
    1.070700e+03, 1.145300e+03, 1.168140e+03, 1.131280e+03, 1.076870e+03,
    9.162380e+02, 7.097790e+02, 5.386130e+02, 4.921970e+02, 5.826000e+02,
    7.378950e+02, 8.694650e+02, 8.932520e+02, 9.332970e+02, 1.049710e+03,
    1.140670e+03, 1.123480e+03, 1.089320e+03, 1.013880e+03, 1.025190e+03,
    1.146800e+03, 1.193480e+03, 1.315330e+03, 1.362190e+03, 1.384420e+03,
    1.348850e+03, 1.313940e+03, 1.307210e+03, 1.311940e+03, 1.272130e+03,
    1.137860e+03, 8.464570e+02, 7.060000e+02, 5.850740e+02, 6.560800e+02,
    8.174720e+02, 9.415870e+02, 9.727370e+02, 9.520820e+02, 8.982810e+02,
    9.505770e+02, 1.007470e+03, 1.051650e+03, 1.058520e+03, 1.051590e+03,
    1.071360e+03, 1.104840e+03, 1.175840e+03, 1.240480e+03, 1.266810e+03,
    1.279440e+03, 1.270200e+03, 1.264420e+03, 1.218720e+03, 1.189220e+03,
    1.121330e+03, 1.098480e+03, 1.072060e+03, 1.037260e+03, 9.650810e+02,
    9.441010e+02, 9.478390e+02, 1.019230e+03, 1.045870e+03, 9.153270e+02,
    8.597680e+02, 7.686450e+02, 8.559430e+02, 9.417660e+02, 9.117000e+02,
    9.205890e+02, 1.023400e+03, 1.092030e+03, 1.105970e+03, 1.150680e+03,
    1.276070e+03, 1.343750e+03, 1.297400e+03, 1.288140e+03, 1.280050e+03,
    1.265000e+03, 1.240820e+03, 1.264490e+03, 1.328130e+03, 1.349340e+03,
    1.329550e+03, 1.332670e+03, 1.393090e+03, 1.430830e+03, 1.418780e+03,
    1.379730e+03, 1.367320e+03, 1.390040e+03, 1.396130e+03, 1.385190e+03,
    1.323390e+03, 1.261380e+03, 1.205340e+03, 1.182140e+03, 1.214370e+03,
    1.301980e+03, 1.343210e+03, 1.299610e+03, 1.271980e+03, 1.257320e+03,
    1.282080e+03, 1.307410e+03, 1.249440e+03, 1.141860e+03, 1.079890e+03,
    1.071890e+03, 1.140160e+03, 1.230120e+03, 1.366600e+03, 1.429020e+03,
    1.432630e+03, 1.367940e+03, 1.289110e+03, 1.274190e+03, 1.285490e+03,
    1.339760e+03, 1.379030e+03, 1.374580e+03, 1.250720e+03, 1.182660e+03,
    1.067660e+03, 1.071850e+03, 1.126850e+03, 1.126320e+03, 1.068320e+03,
    9.956170e+02, 1.005340e+03, 1.058060e+03, 1.155260e+03, 1.184280e+03,
    1.183390e+03, 1.205360e+03, 1.273670e+03, 1.289640e+03, 1.256970e+03,
    1.181540e+03, 1.101300e+03, 1.080630e+03, 1.060000e+03, 9.898440e+02,
    9.198070e+02, 9.595630e+02, 1.019820e+03, 1.073730e+03, 1.168460e+03,
    1.252710e+03, 1.346080e+03, 1.435150e+03, 1.490000e+03, 1.495460e+03,
    1.430540e+03, 1.314290e+03, 1.216720e+03, 1.179410e+03, 1.197990e+03,
    1.263080e+03, 1.286850e+03, 1.270080e+03, 1.264390e+03, 1.263800e+03,
    1.287050e+03, 1.316730e+03, 1.359640e+03, 1.429200e+03, 1.494160e+03,
    1.506540e+03, 1.462770e+03, 1.420210e+03, 1.381810e+03, 1.379830e+03,
    1.366360e+03, 1.339370e+03, 1.225970e+03, 1.082170e+03, 1.006920e+03,
    9.630600e+02, 8.719990e+02, 8.638940e+02, 9.416920e+02, 9.922160e+02,
    9.920330e+02, 9.790460e+02, 9.703650e+02, 9.324310e+02, 9.211230e+02,
    1.059360e+03, 1.190850e+03, 1.268110e+03, 1.297300e+03, 1.333140e+03,
    1.383410e+03, 1.468380e+03, 1.510610e+03, 1.580190e+03, 1.593130e+03,
    1.528670e+03, 1.449590e+03, 1.372930e+03, 1.389980e+03, 1.424050e+03,
    1.424160e+03, 1.331850e+03, 1.170430e+03, 9.706370e+02, 8.186530e+02,
    6.514170e+02, 6.482640e+02, 6.956790e+02, 7.101180e+02, 7.133830e+02,
    7.851710e+02, 8.899150e+02, 1.073050e+03, 1.149730e+03, 1.250600e+03,
    1.301260e+03, 1.400530e+03, 1.411010e+03, 1.245500e+03, 1.065050e+03,
    9.249950e+02, 9.753460e+02, 1.158850e+03, 1.317960e+03, 1.387120e+03,
    1.323650e+03, 1.217420e+03, 1.145960e+03, 1.141250e+03, 1.116890e+03,
    1.003810e+03, 8.684240e+02, 7.559760e+02, 6.904200e+02, 5.745680e+02,
    5.173930e+02, 5.742180e+02, 6.158440e+02, 6.253570e+02, 6.354740e+02,
    6.759180e+02, 7.694270e+02, 9.720110e+02, 1.111910e+03, 1.183380e+03,
    1.225830e+03, 1.338690e+03, 1.349740e+03, 1.344040e+03, 1.299830e+03,
    1.132800e+03, 9.779850e+02, 9.243390e+02, 9.321420e+02, 9.355340e+02,
    8.084610e+02, 7.187010e+02, 7.003460e+02, 7.764360e+02, 8.920840e+02,
    8.352170e+02, 7.570080e+02, 6.226210e+02, 5.255320e+02, 5.434500e+02,
    6.143440e+02, 8.187290e+02, 1.027770e+03, 1.168260e+03, 1.240070e+03,
    1.252890e+03, 1.253340e+03, 1.287510e+03, 1.364090e+03, 1.439410e+03,
    1.526420e+03, 1.554760e+03, 1.525960e+03, 1.447700e+03, 1.234070e+03,
    9.730770e+02, 7.893260e+02, 7.422460e+02, 8.170370e+02, 9.876530e+02,
    1.118990e+03, 1.173190e+03, 1.189120e+03, 1.184840e+03, 1.215160e+03,
    1.194640e+03, 1.077670e+03, 9.782170e+02, 1.002190e+03, 1.109060e+03,
    1.211630e+03, 1.246480e+03, 1.163440e+03, 1.023630e+03, 9.501620e+02,
    9.632390e+02, 1.128870e+03, 1.164890e+03, 1.238570e+03, 1.233830e+03,
    1.101810e+03, 1.063050e+03, 1.084000e+03, 1.174900e+03, 1.307220e+03,
    1.376020e+03, 1.416820e+03, 1.428650e+03, 1.406980e+03, 1.386400e+03,
    1.369810e+03, 1.352370e+03, 1.358620e+03, 1.397260e+03, 1.426010e+03,
    1.414180e+03, 1.374630e+03, 1.369510e+03, 1.391360e+03, 1.470710e+03,
    1.554730e+03, 1.583120e+03, 1.558910e+03, 1.530760e+03, 1.504850e+03,
    1.504600e+03, 1.524580e+03, 1.555570e+03, 1.625420e+03, 1.662770e+03,
    1.572990e+03, 1.372440e+03, 1.177690e+03, 1.126330e+03, 1.147910e+03,
    1.165100e+03, 1.162420e+03, 1.148220e+03, 1.099470e+03, 1.070200e+03,
    1.070450e+03, 1.137190e+03, 1.213360e+03, 1.302360e+03, 1.295790e+03,
    1.242190e+03, 1.186180e+03, 1.121700e+03, 1.056330e+03, 1.002930e+03,
    9.826110e+02, 1.008160e+03, 1.087330e+03, 1.103330e+03, 1.041970e+03,
    9.091780e+02, 8.312150e+02, 8.125170e+02, 8.397050e+02, 9.376410e+02,
    1.085290e+03, 1.222000e+03, 1.258380e+03, 1.242430e+03, 1.270530e+03,
    1.334120e+03, 1.399190e+03, 1.451680e+03, 1.453060e+03, 1.424410e+03,
    1.402730e+03, 1.382840e+03, 1.295880e+03, 1.183970e+03, 1.105630e+03,
    1.099330e+03, 1.214160e+03, 1.322640e+03, 1.374650e+03, 1.409410e+03,
    1.456930e+03, 1.470860e+03, 1.454250e+03, 1.428050e+03, 1.369230e+03,
    1.244680e+03, 1.115380e+03, 1.061160e+03, 1.035840e+03, 1.006410e+03,
    9.309940e+02, 8.269520e+02, 7.851920e+02, 8.929900e+02, 1.034650e+03,
    1.155020e+03, 1.217470e+03, 1.201090e+03, 1.105920e+03, 9.289920e+02,
    7.379260e+02, 6.214930e+02, 6.643490e+02, 7.774590e+02, 9.621400e+02,
    1.129280e+03, 1.123460e+03, 1.081410e+03, 9.248180e+02, 7.622020e+02,
    6.924140e+02, 6.338250e+02, 6.132290e+02, 6.560280e+02, 7.049330e+02,
    7.104250e+02, 7.044320e+02, 7.225180e+02, 7.355270e+02, 7.458250e+02,
    8.115220e+02, 8.880300e+02, 8.648670e+02, 7.873650e+02, 6.998190e+02,
    6.012700e+02, 6.062140e+02, 6.143610e+02, 6.143190e+02, 6.466160e+02,
    7.181520e+02, 8.094530e+02, 8.424850e+02, 8.573000e+02, 8.239460e+02,
    7.089970e+02, 6.350980e+02, 5.912240e+02, 6.362590e+02, 6.747300e+02,
    6.808070e+02, 6.359480e+02, 6.838060e+02, 8.615270e+02, 9.978430e+02,
    1.134660e+03, 1.149300e+03, 1.142700e+03, 1.171090e+03, 1.199070e+03,
    1.191380e+03, 1.166890e+03, 1.142950e+03, 1.138900e+03, 1.195330e+03,
    1.262710e+03, 1.312960e+03, 1.286350e+03, 1.106100e+03, 1.016050e+03,
    9.419200e+02, 9.290630e+02, 1.044150e+03, 1.216770e+03, 1.295840e+03,
    1.278460e+03, 1.208270e+03, 1.133920e+03, 1.093440e+03, 1.074830e+03,
    1.068900e+03, 1.014130e+03, 9.338330e+02, 9.321480e+02, 1.023330e+03,
    1.057440e+03, 9.942990e+02, 8.692660e+02, 7.207220e+02, 6.256960e+02,
    6.008440e+02, 6.363440e+02, 7.846740e+02, 9.623190e+02, 1.116650e+03,
    1.282770e+03, 1.341830e+03, 1.325840e+03, 1.289390e+03, 1.269700e+03,
    1.198260e+03, 1.132760e+03, 1.153490e+03, 1.172990e+03, 1.179460e+03,
    1.152500e+03, 1.137450e+03, 1.134540e+03, 1.113110e+03, 1.042460e+03,
    9.442930e+02, 8.850280e+02, 7.989780e+02, 7.621710e+02, 7.661590e+02,
    7.861570e+02, 8.663640e+02, 1.012200e+03, 1.146400e+03, 1.264740e+03,
    1.348660e+03, 1.362520e+03, 1.326540e+03, 1.309490e+03, 1.205030e+03,
    1.028520e+03, 8.462980e+02, 8.306640e+02, 8.825440e+02, 1.041850e+03,
    1.120070e+03, 1.124340e+03, 1.074260e+03, 9.743830e+02, 8.610710e+02,
    8.293850e+02, 8.970170e+02, 1.092440e+03, 1.270290e+03, 1.287020e+03,
    1.192100e+03, 1.015030e+03, 8.352470e+02, 7.790140e+02, 8.563680e+02,
    9.661000e+02, 9.410860e+02, 8.984060e+02, 8.706910e+02, 9.246900e+02,
    1.045460e+03, 1.159560e+03, 1.233920e+03, 1.330350e+03, 1.367220e+03,
    1.350010e+03, 1.325020e+03, 1.311180e+03, 1.317350e+03, 1.285420e+03,
    1.244760e+03, 1.183220e+03, 1.240050e+03, 1.402390e+03, 1.474830e+03,
    1.450630e+03, 1.370630e+03, 1.339700e+03, 1.294000e+03, 1.232820e+03,
    1.227400e+03, 1.307250e+03, 1.398490e+03, 1.437170e+03, 1.338710e+03,
    1.181220e+03, 1.131010e+03, 1.157640e+03, 1.217160e+03, 1.200780e+03,
    1.141180e+03, 1.013610e+03, 1.000730e+03, 1.145050e+03, 1.215580e+03,
    1.341950e+03, 1.411990e+03, 1.450150e+03, 1.466540e+03, 1.433840e+03,
    1.379880e+03, 1.374740e+03, 1.402920e+03, 1.477170e+03, 1.550260e+03,
    1.540180e+03, 1.528630e+03, 1.453750e+03, 1.417170e+03, 1.453720e+03,
    1.472360e+03, 1.450550e+03, 1.382770e+03, 1.358600e+03, 1.378260e+03,
    1.402450e+03, 1.383750e+03, 1.311170e+03, 1.289030e+03, 1.255150e+03,
    1.160350e+03, 1.034690e+03, 1.009040e+03, 1.052840e+03, 1.113810e+03,
    1.119910e+03, 1.121740e+03, 1.170990e+03, 1.264760e+03, 1.266720e+03,
    1.218600e+03, 1.151570e+03, 1.070760e+03, 1.033380e+03, 9.824280e+02,
    9.215380e+02, 7.763720e+02, 6.986970e+02, 6.691700e+02, 6.384580e+02,
    5.875660e+02, 5.282180e+02, 4.960030e+02, 4.685540e+02, 4.233560e+02,
    3.576630e+02, 3.045970e+02, 2.650500e+02, 2.565600e+02, 2.937870e+02,
    3.414170e+02, 3.885420e+02, 4.440860e+02, 5.311230e+02, 6.010570e+02,
    6.326000e+02, 6.887350e+02, 7.906460e+02, 8.780600e+02, 9.411620e+02,
    9.966360e+02, 1.012700e+03, 1.012340e+03, 1.016170e+03, 1.053570e+03,
    1.071160e+03, 1.022140e+03, 9.464310e+02, 8.917780e+02, 9.139880e+02,
    1.052680e+03, 1.181800e+03, 1.330670e+03, 1.399510e+03, 1.353820e+03,
    1.285470e+03, 1.237630e+03, 1.231330e+03, 1.298280e+03, 1.390590e+03,
    1.450830e+03, 1.508160e+03, 1.524200e+03, 1.484220e+03, 1.401480e+03,
    1.253770e+03, 1.246610e+03, 1.336930e+03, 1.464830e+03, 1.540610e+03,
    1.506170e+03, 1.425870e+03, 1.325520e+03, 1.255450e+03, 1.293860e+03,
    1.346460e+03, 1.394070e+03, 1.451760e+03, 1.509230e+03, 1.507630e+03,
    1.443780e+03, 1.235850e+03, 9.953730e+02, 8.735890e+02, 8.248450e+02,
    8.517690e+02, 8.956240e+02, 9.134020e+02, 9.062280e+02, 8.610310e+02,
    8.012780e+02, 7.175000e+02, 6.344660e+02, 5.437540e+02, 4.491410e+02,
    3.793570e+02, 3.389700e+02, 2.992610e+02, 2.940160e+02, 3.458130e+02,
    4.245660e+02, 4.892340e+02, 6.063270e+02, 6.811380e+02, 7.430180e+02,
    8.009870e+02, 8.587320e+02, 9.078760e+02, 9.449430e+02, 1.008060e+03,
    1.129590e+03, 1.193530e+03, 1.208590e+03, 1.229720e+03, 1.276030e+03,
    1.350250e+03, 1.397670e+03, 1.449390e+03, 1.518140e+03, 1.579230e+03,
    1.615590e+03, 1.637960e+03, 1.614970e+03, 1.547230e+03, 1.521680e+03,
    1.513100e+03, 1.504670e+03, 1.472420e+03, 1.466870e+03, 1.510970e+03,
    1.565130e+03, 1.578370e+03, 1.544830e+03, 1.478480e+03, 1.480250e+03,
    1.648460e+03, 1.736310e+03, 1.753950e+03, 1.696010e+03, 1.633560e+03,
    1.610640e+03, 1.632150e+03, 1.691820e+03, 1.728810e+03, 1.741030e+03,
    1.762660e+03, 1.775350e+03, 1.736690e+03, 1.699580e+03, 1.674490e+03,
    1.660610e+03, 1.658430e+03, 1.645540e+03, 1.609800e+03, 1.547390e+03,
    1.480200e+03, 1.531230e+03, 1.677940e+03, 1.733600e+03, 1.843200e+03,
    1.850010e+03, 1.786210e+03, 1.746800e+03, 1.760530e+03, 1.798480e+03,
    1.875140e+03, 1.916510e+03, 1.891750e+03, 1.803910e+03, 1.618870e+03,
    1.385630e+03, 1.337500e+03, 1.403160e+03, 1.491710e+03, 1.611240e+03,
    1.721430e+03, 1.823800e+03, 1.821080e+03, 1.785730e+03, 1.761930e+03,
    1.771120e+03, 1.788650e+03, 1.813590e+03, 1.816340e+03, 1.818290e+03,
    1.840210e+03, 1.844800e+03, 1.805030e+03, 1.771340e+03, 1.790380e+03,
    1.843110e+03, 1.875480e+03, 1.840120e+03, 1.778770e+03, 1.678390e+03,
    1.636200e+03, 1.711850e+03, 1.817810e+03, 1.900930e+03, 1.899100e+03,
    1.833280e+03, 1.818100e+03, 1.797100e+03, 1.801580e+03, 1.814540e+03,
    1.848780e+03, 1.857500e+03, 1.834510e+03, 1.769510e+03, 1.710970e+03,
    1.714390e+03, 1.773250e+03, 1.844860e+03, 1.889350e+03, 1.907200e+03,
    1.933620e+03, 1.949400e+03, 1.960950e+03, 1.927740e+03, 1.766750e+03,
    1.579200e+03, 1.453650e+03, 1.469430e+03, 1.543840e+03, 1.542360e+03,
    1.490620e+03, 1.486190e+03, 1.519810e+03, 1.572230e+03, 1.603980e+03,
    1.649750e+03, 1.714560e+03, 1.821940e+03, 1.924860e+03, 1.988040e+03,
    2.021260e+03, 2.028170e+03, 2.009580e+03, 1.982740e+03, 1.937200e+03,
    1.832890e+03, 1.768550e+03, 1.770590e+03, 1.829570e+03, 1.976600e+03,
    2.045530e+03, 1.990170e+03, 1.845690e+03, 1.620890e+03, 1.373350e+03,
    1.168950e+03, 1.051190e+03, 1.093360e+03, 1.420780e+03, 1.674800e+03,
    1.820540e+03, 1.894760e+03, 1.865450e+03, 1.854250e+03, 1.889210e+03,
    1.966380e+03, 2.009160e+03, 1.986490e+03, 1.915590e+03, 1.804330e+03,
    1.758590e+03, 1.780060e+03, 1.787760e+03, 1.741940e+03, 1.678460e+03,
    1.663480e+03, 1.699360e+03, 1.754120e+03, 1.722970e+03, 1.614710e+03,
    1.542800e+03, 1.524850e+03, 1.572820e+03, 1.655570e+03, 1.739360e+03,
    1.857220e+03, 1.914320e+03, 1.902640e+03, 1.849890e+03, 1.706440e+03,
    1.474430e+03, 1.256950e+03, 1.175520e+03, 1.277640e+03, 1.532510e+03,
    1.697940e+03, 1.745540e+03, 1.684770e+03, 1.595490e+03, 1.557150e+03,
    1.604300e+03, 1.752740e+03, 1.884790e+03, 1.957890e+03, 1.960800e+03,
    1.863080e+03, 1.623680e+03, 1.375540e+03, 1.286190e+03, 1.357650e+03,
    1.636530e+03, 1.820830e+03, 1.869620e+03, 1.844800e+03, 1.785930e+03,
    1.741930e+03, 1.697530e+03, 1.577930e+03, 1.442780e+03, 1.374470e+03,
    1.383990e+03, 1.461660e+03, 1.680750e+03, 1.792210e+03, 1.884850e+03,
    1.941110e+03, 1.951390e+03, 1.902450e+03, 1.845490e+03, 1.786420e+03,
    1.701530e+03, 1.647960e+03, 1.635100e+03, 1.640160e+03, 1.689690e+03,
    1.763480e+03, 1.830410e+03, 1.898650e+03, 1.965660e+03, 2.012710e+03,
    2.016920e+03, 2.003020e+03, 1.974370e+03, 1.933350e+03, 1.911580e+03,
    1.902770e+03, 1.852130e+03, 1.778570e+03, 1.779420e+03, 1.851930e+03,
    1.920410e+03, 1.911600e+03, 1.830220e+03, 1.754810e+03, 1.672200e+03,
    1.631740e+03, 1.632530e+03, 1.643190e+03, 1.646830e+03, 1.644870e+03,
    1.637580e+03, 1.633390e+03, 1.609670e+03, 1.498630e+03, 1.324270e+03
  }; 
